#Opt. Const. of Al_updated vs. nm
#Wavelength (nm)	n	k
210.000000	0.107119	1.945220	
211.000000	0.107963	1.956702	
212.000000	0.108608	1.968301	
213.000000	0.109154	1.980046	
214.000000	0.109692	1.991919	
215.000000	0.110267	2.003849	
216.000000	0.110860	2.015790	
217.000000	0.111446	2.027732	
218.000000	0.112005	2.039690	
219.000000	0.112547	2.051695	
220.000000	0.113107	2.063756	
221.000000	0.113717	2.075862	
222.000000	0.114406	2.087974	
223.000000	0.115156	2.100044	
224.000000	0.115932	2.112053	
225.000000	0.116696	2.124006	
226.000000	0.117420	2.135931	
227.000000	0.118109	2.147872	
228.000000	0.118795	2.159847	
229.000000	0.119504	2.171854	
230.000000	0.120264	2.183875	
231.000000	0.121076	2.195874	
232.000000	0.121920	2.207834	
233.000000	0.122775	2.219749	
234.000000	0.123621	2.231627	
235.000000	0.124448	2.243487	
236.000000	0.125262	2.255344	
237.000000	0.126072	2.267205	
238.000000	0.126884	2.279075	
239.000000	0.127706	2.290951	
240.000000	0.128545	2.302833	
241.000000	0.129404	2.314717	
242.000000	0.130289	2.326600	
243.000000	0.131202	2.338476	
244.000000	0.132146	2.350335	
245.000000	0.133114	2.362169	
246.000000	0.134099	2.373973	
247.000000	0.135092	2.385747	
248.000000	0.136086	2.397494	
249.000000	0.137077	2.409220	
250.000000	0.138062	2.420929	
251.000000	0.139043	2.432627	
252.000000	0.140020	2.444316	
253.000000	0.140992	2.455999	
254.000000	0.141960	2.467682	
255.000000	0.142929	2.479367	
256.000000	0.143903	2.491056	
257.000000	0.144886	2.502750	
258.000000	0.145881	2.514448	
259.000000	0.146892	2.526148	
260.000000	0.147921	2.537848	
261.000000	0.148971	2.549546	
262.000000	0.150042	2.561238	
263.000000	0.151138	2.572922	
264.000000	0.152258	2.584592	
265.000000	0.153403	2.596240	
266.000000	0.154564	2.607862	
267.000000	0.155735	2.619455	
268.000000	0.156908	2.631022	
269.000000	0.158078	2.642566	
270.000000	0.159237	2.654092	
271.000000	0.160387	2.665612	
272.000000	0.161533	2.677132	
273.000000	0.162679	2.688654	
274.000000	0.163830	2.700179	
275.000000	0.164992	2.711707	
276.000000	0.166168	2.723235	
277.000000	0.167361	2.734758	
278.000000	0.168569	2.746274	
279.000000	0.169792	2.757780	
280.000000	0.171029	2.769276	
281.000000	0.172280	2.780760	
282.000000	0.173544	2.792230	
283.000000	0.174819	2.803684	
284.000000	0.176105	2.815123	
285.000000	0.177397	2.826545	
286.000000	0.178694	2.837950	
287.000000	0.179994	2.849341	
288.000000	0.181294	2.860717	
289.000000	0.182593	2.872083	
290.000000	0.183893	2.883442	
291.000000	0.185194	2.894796	
292.000000	0.186500	2.906146	
293.000000	0.187813	2.917492	
294.000000	0.189134	2.928832	
295.000000	0.190467	2.940166	
296.000000	0.191811	2.951489	
297.000000	0.193166	2.962797	
298.000000	0.194527	2.974090	
299.000000	0.195891	2.985365	
300.000000	0.197256	2.996625	
301.000000	0.198617	3.007870	
302.000000	0.199973	3.019104	
303.000000	0.201320	3.030331	
304.000000	0.202660	3.041557	
305.000000	0.203996	3.052786	
306.000000	0.205334	3.064020	
307.000000	0.206675	3.075258	
308.000000	0.208024	3.086501	
309.000000	0.209384	3.097747	
310.000000	0.210759	3.108994	
311.000000	0.212151	3.120236	
312.000000	0.213557	3.131470	
313.000000	0.214975	3.142693	
314.000000	0.216403	3.153903	
315.000000	0.217838	3.165101	
316.000000	0.219279	3.176285	
317.000000	0.220722	3.187458	
318.000000	0.222167	3.198620	
319.000000	0.223611	3.209773	
320.000000	0.225055	3.220921	
321.000000	0.226500	3.232064	
322.000000	0.227947	3.243203	
323.000000	0.229396	3.254340	
324.000000	0.230849	3.265473	
325.000000	0.232306	3.276603	
326.000000	0.233768	3.287731	
327.000000	0.235236	3.298856	
328.000000	0.236709	3.309978	
329.000000	0.238189	3.321097	
330.000000	0.239675	3.332212	
331.000000	0.241168	3.343324	
332.000000	0.242668	3.354431	
333.000000	0.244176	3.365533	
334.000000	0.245691	3.376631	
335.000000	0.247214	3.387722	
336.000000	0.248745	3.398808	
337.000000	0.250283	3.409885	
338.000000	0.251828	3.420954	
339.000000	0.253378	3.432015	
340.000000	0.254933	3.443067	
341.000000	0.256491	3.454111	
342.000000	0.258052	3.465147	
343.000000	0.259615	3.476174	
344.000000	0.261179	3.487195	
345.000000	0.262743	3.498210	
346.000000	0.264308	3.509220	
347.000000	0.265873	3.520225	
348.000000	0.267438	3.531227	
349.000000	0.269004	3.542226	
350.000000	0.270570	3.553223	
351.000000	0.272137	3.564218	
352.000000	0.273705	3.575212	
353.000000	0.275274	3.586206	
354.000000	0.276843	3.597200	
355.000000	0.278413	3.608196	
356.000000	0.279985	3.619196	
357.000000	0.281561	3.630199	
358.000000	0.283142	3.641207	
359.000000	0.284731	3.652220	
360.000000	0.286327	3.663237	
361.000000	0.287934	3.674257	
362.000000	0.289551	3.685279	
363.000000	0.291182	3.696304	
364.000000	0.292826	3.707328	
365.000000	0.294485	3.718349	
366.000000	0.296160	3.729365	
367.000000	0.297847	3.740372	
368.000000	0.299544	3.751368	
369.000000	0.301249	3.762354	
370.000000	0.302960	3.773329	
371.000000	0.304674	3.784292	
372.000000	0.306389	3.795247	
373.000000	0.308102	3.806192	
374.000000	0.309812	3.817130	
375.000000	0.311517	3.828065	
376.000000	0.313214	3.838997	
377.000000	0.314903	3.849935	
378.000000	0.316588	3.860882	
379.000000	0.318272	3.871841	
380.000000	0.319958	3.882813	
381.000000	0.321651	3.893799	
382.000000	0.323352	3.904799	
383.000000	0.325067	3.915812	
384.000000	0.326797	3.926837	
385.000000	0.328546	3.937873	
386.000000	0.330317	3.948918	
387.000000	0.332112	3.959969	
388.000000	0.333934	3.971022	
389.000000	0.335784	3.982071	
390.000000	0.337658	3.993111	
391.000000	0.339555	4.004140	
392.000000	0.341471	4.015156	
393.000000	0.343405	4.026157	
394.000000	0.345352	4.037144	
395.000000	0.347312	4.048116	
396.000000	0.349282	4.059072	
397.000000	0.351259	4.070013	
398.000000	0.353241	4.080939	
399.000000	0.355226	4.091853	
400.000000	0.357211	4.102756	
401.000000	0.359196	4.113649	
402.000000	0.361181	4.124539	
403.000000	0.363166	4.135425	
404.000000	0.365154	4.146309	
405.000000	0.367144	4.157192	
406.000000	0.369139	4.168076	
407.000000	0.371139	4.178959	
408.000000	0.373146	4.189843	
409.000000	0.375159	4.200727	
410.000000	0.377181	4.211612	
411.000000	0.379212	4.222497	
412.000000	0.381253	4.233383	
413.000000	0.383305	4.244267	
414.000000	0.385369	4.255151	
415.000000	0.387445	4.266032	
416.000000	0.389532	4.276910	
417.000000	0.391631	4.287783	
418.000000	0.393742	4.298652	
419.000000	0.395863	4.309517	
420.000000	0.397996	4.320376	
421.000000	0.400139	4.331230	
422.000000	0.402292	4.342079	
423.000000	0.404456	4.352921	
424.000000	0.406629	4.363759	
425.000000	0.408812	4.374589	
426.000000	0.411005	4.385415	
427.000000	0.413207	4.396233	
428.000000	0.415417	4.407045	
429.000000	0.417637	4.417852	
430.000000	0.419865	4.428652	
431.000000	0.422102	4.439446	
432.000000	0.424346	4.450234	
433.000000	0.426599	4.461016	
434.000000	0.428859	4.471792	
435.000000	0.431128	4.482561	
436.000000	0.433403	4.493325	
437.000000	0.435686	4.504083	
438.000000	0.437976	4.514836	
439.000000	0.440273	4.525582	
440.000000	0.442577	4.536324	
441.000000	0.444887	4.547060	
442.000000	0.447204	4.557792	
443.000000	0.449527	4.568519	
444.000000	0.451855	4.579242	
445.000000	0.454190	4.589962	
446.000000	0.456532	4.600679	
447.000000	0.458881	4.611393	
448.000000	0.461238	4.622105	
449.000000	0.463602	4.632814	
450.000000	0.465975	4.643521	
451.000000	0.468357	4.654225	
452.000000	0.470747	4.664927	
453.000000	0.473147	4.675626	
454.000000	0.475557	4.686322	
455.000000	0.477976	4.697015	
456.000000	0.480405	4.707705	
457.000000	0.482845	4.718391	
458.000000	0.485296	4.729074	
459.000000	0.487757	4.739753	
460.000000	0.490230	4.750426	
461.000000	0.492714	4.761095	
462.000000	0.495209	4.771757	
463.000000	0.497714	4.782413	
464.000000	0.500228	4.793062	
465.000000	0.502753	4.803705	
466.000000	0.505287	4.814341	
467.000000	0.507830	4.824969	
468.000000	0.510382	4.835591	
469.000000	0.512941	4.846206	
470.000000	0.515509	4.856813	
471.000000	0.518084	4.867414	
472.000000	0.520667	4.878009	
473.000000	0.523256	4.888596	
474.000000	0.525852	4.899178	
475.000000	0.528454	4.909753	
476.000000	0.531062	4.920322	
477.000000	0.533675	4.930886	
478.000000	0.536294	4.941446	
479.000000	0.538918	4.952002	
480.000000	0.541547	4.962555	
481.000000	0.544183	4.973105	
482.000000	0.546826	4.983653	
483.000000	0.549476	4.994199	
484.000000	0.552133	5.004742	
485.000000	0.554797	5.015283	
486.000000	0.557470	5.025823	
487.000000	0.560151	5.036360	
488.000000	0.562840	5.046895	
489.000000	0.565539	5.057429	
490.000000	0.568246	5.067960	
491.000000	0.570963	5.078490	
492.000000	0.573690	5.089017	
493.000000	0.576427	5.099543	
494.000000	0.579174	5.110066	
495.000000	0.581931	5.120586	
496.000000	0.584699	5.131104	
497.000000	0.587477	5.141620	
498.000000	0.590267	5.152132	
499.000000	0.593068	5.162642	
500.000000	0.595879	5.173147	
501.000000	0.598702	5.183649	
502.000000	0.601535	5.194148	
503.000000	0.604380	5.204642	
504.000000	0.607236	5.215134	
505.000000	0.610103	5.225621	
506.000000	0.612980	5.236104	
507.000000	0.615869	5.246583	
508.000000	0.618769	5.257058	
509.000000	0.621680	5.267529	
510.000000	0.624602	5.277995	
511.000000	0.627535	5.288457	
512.000000	0.630479	5.298915	
513.000000	0.633433	5.309369	
514.000000	0.636399	5.319818	
515.000000	0.639375	5.330264	
516.000000	0.642362	5.340705	
517.000000	0.645360	5.351143	
518.000000	0.648368	5.361577	
519.000000	0.651387	5.372007	
520.000000	0.654417	5.382435	
521.000000	0.657459	5.392860	
522.000000	0.660513	5.403282	
523.000000	0.663579	5.413702	
524.000000	0.666658	5.424118	
525.000000	0.669749	5.434531	
526.000000	0.672854	5.444941	
527.000000	0.675972	5.455348	
528.000000	0.679103	5.465751	
529.000000	0.682249	5.476151	
530.000000	0.685409	5.486547	
531.000000	0.688583	5.496939	
532.000000	0.691772	5.507327	
533.000000	0.694975	5.517710	
534.000000	0.698194	5.528089	
535.000000	0.701428	5.538463	
536.000000	0.704677	5.548831	
537.000000	0.707942	5.559195	
538.000000	0.711223	5.569552	
539.000000	0.714519	5.579903	
540.000000	0.717832	5.590247	
541.000000	0.721161	5.600584	
542.000000	0.724506	5.610912	
543.000000	0.727866	5.621233	
544.000000	0.731241	5.631545	
545.000000	0.734631	5.641847	
546.000000	0.738036	5.652141	
547.000000	0.741456	5.662426	
548.000000	0.744888	5.672700	
549.000000	0.748335	5.682965	
550.000000	0.751795	5.693222	
551.000000	0.755268	5.703468	
552.000000	0.758754	5.713705	
553.000000	0.762253	5.723932	
554.000000	0.765763	5.734149	
555.000000	0.769285	5.744358	
556.000000	0.772819	5.754557	
557.000000	0.776364	5.764748	
558.000000	0.779920	5.774929	
559.000000	0.783486	5.785101	
560.000000	0.787063	5.795266	
561.000000	0.790650	5.805422	
562.000000	0.794246	5.815570	
563.000000	0.797851	5.825712	
564.000000	0.801466	5.835848	
565.000000	0.805089	5.845979	
566.000000	0.808722	5.856107	
567.000000	0.812365	5.866232	
568.000000	0.816019	5.876355	
569.000000	0.819685	5.886476	
570.000000	0.823364	5.896596	
571.000000	0.827058	5.906715	
572.000000	0.830766	5.916832	
573.000000	0.834489	5.926949	
574.000000	0.838229	5.937064	
575.000000	0.841986	5.947177	
576.000000	0.845761	5.957290	
577.000000	0.849555	5.967400	
578.000000	0.853368	5.977508	
579.000000	0.857202	5.987614	
580.000000	0.861056	5.997716	
581.000000	0.864932	6.007816	
582.000000	0.868830	6.017912	
583.000000	0.872751	6.028003	
584.000000	0.876696	6.038090	
585.000000	0.880665	6.048171	
586.000000	0.884659	6.058245	
587.000000	0.888678	6.068313	
588.000000	0.892724	6.078373	
589.000000	0.896795	6.088424	
590.000000	0.900895	6.098466	
591.000000	0.905022	6.108496	
592.000000	0.909177	6.118514	
593.000000	0.913360	6.128516	
594.000000	0.917570	6.138502	
595.000000	0.921806	6.148470	
596.000000	0.926067	6.158421	
597.000000	0.930352	6.168353	
598.000000	0.934661	6.178265	
599.000000	0.938992	6.188157	
600.000000	0.943345	6.198029	
601.000000	0.947720	6.207880	
602.000000	0.952114	6.217710	
603.000000	0.956527	6.227519	
604.000000	0.960960	6.237306	
605.000000	0.965410	6.247072	
606.000000	0.969877	6.256816	
607.000000	0.974360	6.266539	
608.000000	0.978859	6.276240	
609.000000	0.983373	6.285921	
610.000000	0.987901	6.295579	
611.000000	0.992441	6.305218	
612.000000	0.996995	6.314835	
613.000000	1.001560	6.324433	
614.000000	1.006136	6.334011	
615.000000	1.010723	6.343570	
616.000000	1.015319	6.353110	
617.000000	1.019924	6.362633	
618.000000	1.024536	6.372139	
619.000000	1.029157	6.381629	
620.000000	1.033784	6.391105	
621.000000	1.038416	6.400569	
622.000000	1.043054	6.410023	
623.000000	1.047700	6.419471	
624.000000	1.052354	6.428913	
625.000000	1.057019	6.438350	
626.000000	1.061697	6.447784	
627.000000	1.066388	6.457214	
628.000000	1.071094	6.466643	
629.000000	1.075818	6.476069	
630.000000	1.080560	6.485493	
631.000000	1.085322	6.494914	
632.000000	1.090105	6.504333	
633.000000	1.094911	6.513751	
634.000000	1.099742	6.523165	
635.000000	1.104599	6.532576	
636.000000	1.109483	6.541984	
637.000000	1.114395	6.551388	
638.000000	1.119337	6.560788	
639.000000	1.124311	6.570181	
640.000000	1.129317	6.579569	
641.000000	1.134358	6.588950	
642.000000	1.139433	6.598323	
643.000000	1.144544	6.607687	
644.000000	1.149693	6.617042	
645.000000	1.154881	6.626385	
646.000000	1.160110	6.635716	
647.000000	1.165379	6.645033	
648.000000	1.170690	6.654335	
649.000000	1.176046	6.663620	
650.000000	1.181446	6.672887	
651.000000	1.186892	6.682133	
652.000000	1.192385	6.691356	
653.000000	1.197926	6.700554	
654.000000	1.203518	6.709723	
655.000000	1.209158	6.718858	
656.000000	1.214846	6.727956	
657.000000	1.220579	6.737015	
658.000000	1.226355	6.746031	
659.000000	1.232173	6.755005	
660.000000	1.238032	6.763934	
661.000000	1.243927	6.772815	
662.000000	1.249860	6.781650	
663.000000	1.255826	6.790436	
664.000000	1.261824	6.799172	
665.000000	1.267854	6.807858	
666.000000	1.273913	6.816494	
667.000000	1.279998	6.825078	
668.000000	1.286109	6.833610	
669.000000	1.292243	6.842090	
670.000000	1.298400	6.850519	
671.000000	1.304577	6.858895	
672.000000	1.310773	6.867218	
673.000000	1.316986	6.875490	
674.000000	1.323215	6.883710	
675.000000	1.329457	6.891878	
676.000000	1.335712	6.899995	
677.000000	1.341978	6.908061	
678.000000	1.348253	6.916076	
679.000000	1.354535	6.924042	
680.000000	1.360825	6.931959	
681.000000	1.367118	6.939827	
682.000000	1.373415	6.947649	
683.000000	1.379713	6.955425	
684.000000	1.386012	6.963156	
685.000000	1.392310	6.970844	
686.000000	1.398604	6.978491	
687.000000	1.404894	6.986098	
688.000000	1.411178	6.993668	
689.000000	1.417454	7.001203	
690.000000	1.423720	7.008708	
691.000000	1.429977	7.016189	
692.000000	1.436226	7.023651	
693.000000	1.442472	7.031097	
694.000000	1.448716	7.038531	
695.000000	1.454963	7.045954	
696.000000	1.461217	7.053368	
697.000000	1.467479	7.060773	
698.000000	1.473754	7.068172	
699.000000	1.480044	7.075565	
700.000000	1.486354	7.082952	
701.000000	1.492686	7.090334	
702.000000	1.499044	7.097710	
703.000000	1.505430	7.105080	
704.000000	1.511848	7.112443	
705.000000	1.518301	7.119800	
706.000000	1.524792	7.127148	
707.000000	1.531324	7.134488	
708.000000	1.537900	7.141818	
709.000000	1.544523	7.149136	
710.000000	1.551196	7.156441	
711.000000	1.557922	7.163733	
712.000000	1.564705	7.171008	
713.000000	1.571546	7.178265	
714.000000	1.578448	7.185502	
715.000000	1.585416	7.192717	
716.000000	1.592451	7.199907	
717.000000	1.599556	7.207069	
718.000000	1.606735	7.214201	
719.000000	1.613990	7.221301	
720.000000	1.621323	7.228364	
721.000000	1.628739	7.235387	
722.000000	1.636239	7.242367	
723.000000	1.643826	7.249300	
724.000000	1.651505	7.256182	
725.000000	1.659277	7.263008	
726.000000	1.667145	7.269774	
727.000000	1.675113	7.276474	
728.000000	1.683184	7.283102	
729.000000	1.691360	7.289650	
730.000000	1.699648	7.296113	
731.000000	1.708048	7.302477	
732.000000	1.716562	7.308729	
733.000000	1.725182	7.314857	
734.000000	1.733903	7.320852	
735.000000	1.742719	7.326708	
736.000000	1.751623	7.332418	
737.000000	1.760609	7.337976	
738.000000	1.769672	7.343378	
739.000000	1.778805	7.348618	
740.000000	1.788002	7.353693	
741.000000	1.797257	7.358601	
742.000000	1.806564	7.363336	
743.000000	1.815918	7.367898	
744.000000	1.825312	7.372282	
745.000000	1.834740	7.376487	
746.000000	1.844198	7.380512	
747.000000	1.853679	7.384354	
748.000000	1.863179	7.388011	
749.000000	1.872692	7.391484	
750.000000	1.882212	7.394770	
751.000000	1.891733	7.397868	
752.000000	1.901252	7.400778	
753.000000	1.910762	7.403500	
754.000000	1.920259	7.406032	
755.000000	1.929739	7.408374	
756.000000	1.939195	7.410527	
757.000000	1.948622	7.412489	
758.000000	1.958017	7.414262	
759.000000	1.967375	7.415845	
760.000000	1.976690	7.417238	
761.000000	1.985959	7.418441	
762.000000	1.995177	7.419456	
763.000000	2.004338	7.420282	
764.000000	2.013440	7.420920	
765.000000	2.022477	7.421371	
766.000000	2.031445	7.421635	
767.000000	2.040340	7.421713	
768.000000	2.049158	7.421606	
769.000000	2.057894	7.421315	
770.000000	2.066545	7.420840	
771.000000	2.075106	7.420183	
772.000000	2.083574	7.419344	
773.000000	2.091944	7.418326	
774.000000	2.100212	7.417128	
775.000000	2.108375	7.415751	
776.000000	2.116428	7.414197	
777.000000	2.124369	7.412466	
778.000000	2.132192	7.410560	
779.000000	2.139894	7.408478	
780.000000	2.147470	7.406222	
781.000000	2.154915	7.403795	
782.000000	2.162225	7.401195	
783.000000	2.169396	7.398427	
784.000000	2.176424	7.395490	
785.000000	2.183302	7.392388	
786.000000	2.190029	7.389121	
787.000000	2.196599	7.385693	
788.000000	2.203008	7.382104	
789.000000	2.209252	7.378356	
790.000000	2.215326	7.374454	
791.000000	2.221226	7.370398	
792.000000	2.226948	7.366190	
793.000000	2.232487	7.361834	
794.000000	2.237839	7.357332	
795.000000	2.243000	7.352686	
796.000000	2.247965	7.347900	
797.000000	2.252731	7.342976	
798.000000	2.257293	7.337916	
799.000000	2.261646	7.332726	
800.000000	2.265787	7.327405	
801.000000	2.269710	7.321960	
802.000000	2.273412	7.316393	
803.000000	2.276888	7.310707	
804.000000	2.280133	7.304905	
805.000000	2.283144	7.298993	
806.000000	2.285917	7.292972	
807.000000	2.288445	7.286848	
808.000000	2.290725	7.280624	
809.000000	2.292753	7.274305	
810.000000	2.294523	7.267896	
811.000000	2.296032	7.261399	
812.000000	2.297274	7.254822	
813.000000	2.298246	7.248168	
814.000000	2.298941	7.241442	
815.000000	2.299355	7.234650	
816.000000	2.299484	7.227799	
817.000000	2.299322	7.220893	
818.000000	2.298865	7.213938	
819.000000	2.298107	7.206942	
820.000000	2.297043	7.199911	
821.000000	2.295668	7.192852	
822.000000	2.293977	7.185773	
823.000000	2.291963	7.178683	
824.000000	2.289622	7.171589	
825.000000	2.286947	7.164503	
826.000000	2.283931	7.157435	
827.000000	2.280569	7.150395	
828.000000	2.276854	7.143400	
829.000000	2.272777	7.136467	
830.000000	2.268343	7.129621	
831.000000	2.263556	7.122878	
832.000000	2.258423	7.116253	
833.000000	2.252951	7.109762	
834.000000	2.247147	7.103415	
835.000000	2.241018	7.097224	
836.000000	2.234573	7.091202	
837.000000	2.227818	7.085356	
838.000000	2.220762	7.079698	
839.000000	2.213413	7.074237	
840.000000	2.205779	7.068980	
841.000000	2.197868	7.063937	
842.000000	2.189690	7.059114	
843.000000	2.181252	7.054517	
844.000000	2.172563	7.050156	
845.000000	2.163632	7.046035	
846.000000	2.154467	7.042161	
847.000000	2.145078	7.038539	
848.000000	2.135473	7.035176	
849.000000	2.125662	7.032074	
850.000000	2.115653	7.029241	
851.000000	2.105456	7.026679	
852.000000	2.095079	7.024392	
853.000000	2.084532	7.022385	
854.000000	2.073825	7.020660	
855.000000	2.062965	7.019222	
856.000000	2.051964	7.018072	
857.000000	2.040830	7.017212	
858.000000	2.029572	7.016647	
859.000000	2.018201	7.016376	
860.000000	2.006724	7.016402	
861.000000	1.995152	7.016725	
862.000000	1.983494	7.017347	
863.000000	1.971759	7.018269	
864.000000	1.959958	7.019490	
865.000000	1.948099	7.021011	
866.000000	1.936191	7.022832	
867.000000	1.924244	7.024952	
868.000000	1.912267	7.027369	
869.000000	1.900270	7.030084	
870.000000	1.888261	7.033094	
871.000000	1.876251	7.036398	
872.000000	1.864247	7.039994	
873.000000	1.852260	7.043879	
